# Flamingos-2 HK grism and KH filter (HK_G5802.dat * H_G0806.dat)
# Wavlength (nm)  Transmission
 900.0   0.000
1233.0   0.000
1234.0   0.001
1235.0   0.001
1236.0   0.001
1237.0   0.001
1238.0   0.001
1239.0   0.001
1240.0   0.002
1241.0   0.002
1242.0   0.003
1243.0   0.004
1244.0   0.005
1245.0   0.006
1246.0   0.007
1247.0   0.010
1248.0   0.012
1249.0   0.016
1250.0   0.020
1251.0   0.026
1252.0   0.033
1253.0   0.043
1254.0   0.054
1255.0   0.069
1256.0   0.087
1257.0   0.110
1258.0   0.137
1259.0   0.167
1260.0   0.200
1261.0   0.234
1262.0   0.266
1263.0   0.296
1264.0   0.322
1265.0   0.342
1266.0   0.358
1267.0   0.368
1268.0   0.375
1269.0   0.380
1270.0   0.386
1271.0   0.390
1272.0   0.395
1273.0   0.399
1274.0   0.403
1275.0   0.407
1276.0   0.410
1277.0   0.414
1278.0   0.416
1279.0   0.419
1280.0   0.420
1281.0   0.421
1282.0   0.421
1283.0   0.419
1284.0   0.416
1285.0   0.413
1286.0   0.408
1287.0   0.405
1288.0   0.401
1289.0   0.395
1290.0   0.390
1291.0   0.384
1292.0   0.378
1293.0   0.372
1294.0   0.367
1295.0   0.361
1296.0   0.357
1297.0   0.355
1298.0   0.355
1299.0   0.356
1300.0   0.358
1301.0   0.362
1302.0   0.367
1303.0   0.374
1304.0   0.382
1305.0   0.391
1306.0   0.400
1307.0   0.410
1308.0   0.420
1309.0   0.429
1310.0   0.437
1311.0   0.442
1312.0   0.446
1313.0   0.446
1314.0   0.446
1315.0   0.442
1316.0   0.439
1317.0   0.435
1318.0   0.432
1319.0   0.428
1320.0   0.426
1321.0   0.424
1322.0   0.423
1323.0   0.423
1324.0   0.423
1325.0   0.426
1326.0   0.429
1327.0   0.434
1328.0   0.439
1329.0   0.443
1330.0   0.447
1331.0   0.452
1332.0   0.456
1333.0   0.459
1334.0   0.461
1335.0   0.460
1336.0   0.459
1337.0   0.458
1338.0   0.457
1339.0   0.456
1340.0   0.455
1341.0   0.453
1342.0   0.452
1343.0   0.452
1344.0   0.452
1345.0   0.453
1346.0   0.452
1347.0   0.454
1348.0   0.455
1349.0   0.459
1350.0   0.461
1351.0   0.465
1352.0   0.468
1353.0   0.467
1354.0   0.465
1355.0   0.463
1356.0   0.461
1357.0   0.457
1358.0   0.453
1359.0   0.447
1360.0   0.443
1361.0   0.438
1362.0   0.432
1363.0   0.427
1364.0   0.422
1365.0   0.417
1366.0   0.414
1367.0   0.412
1368.0   0.410
1369.0   0.410
1370.0   0.410
1371.0   0.410
1372.0   0.411
1373.0   0.417
1374.0   0.424
1375.0   0.430
1376.0   0.438
1377.0   0.445
1378.0   0.452
1379.0   0.457
1380.0   0.462
1381.0   0.470
1382.0   0.477
1383.0   0.484
1384.0   0.489
1385.0   0.491
1386.0   0.492
1387.0   0.493
1388.0   0.491
1389.0   0.491
1390.0   0.488
1391.0   0.486
1392.0   0.482
1393.0   0.480
1394.0   0.478
1395.0   0.475
1396.0   0.473
1397.0   0.470
1398.0   0.469
1399.0   0.468
1400.0   0.468
1401.0   0.470
1402.0   0.473
1403.0   0.475
1404.0   0.479
1405.0   0.482
1406.0   0.486
1407.0   0.489
1408.0   0.493
1409.0   0.499
1410.0   0.503
1411.0   0.509
1412.0   0.514
1413.0   0.517
1414.0   0.519
1415.0   0.520
1416.0   0.520
1417.0   0.521
1418.0   0.520
1419.0   0.518
1420.0   0.516
1421.0   0.513
1422.0   0.511
1423.0   0.508
1424.0   0.506
1425.0   0.505
1426.0   0.506
1427.0   0.507
1428.0   0.509
1429.0   0.510
1430.0   0.512
1431.0   0.513
1432.0   0.514
1433.0   0.517
1434.0   0.520
1435.0   0.523
1436.0   0.525
1437.0   0.530
1438.0   0.533
1439.0   0.535
1440.0   0.536
1441.0   0.537
1442.0   0.537
1443.0   0.538
1444.0   0.539
1445.0   0.539
1446.0   0.540
1447.0   0.541
1448.0   0.543
1449.0   0.541
1450.0   0.541
1451.0   0.541
1452.0   0.542
1453.0   0.544
1454.0   0.545
1455.0   0.549
1456.0   0.553
1457.0   0.556
1458.0   0.558
1459.0   0.561
1460.0   0.562
1461.0   0.568
1462.0   0.573
1463.0   0.579
1464.0   0.585
1465.0   0.587
1466.0   0.589
1467.0   0.588
1468.0   0.588
1469.0   0.587
1470.0   0.587
1471.0   0.585
1472.0   0.584
1473.0   0.581
1474.0   0.578
1475.0   0.574
1476.0   0.570
1477.0   0.565
1478.0   0.560
1479.0   0.559
1480.0   0.557
1481.0   0.556
1482.0   0.556
1483.0   0.558
1484.0   0.559
1485.0   0.560
1486.0   0.562
1487.0   0.562
1488.0   0.564
1489.0   0.567
1490.0   0.571
1491.0   0.574
1492.0   0.578
1493.0   0.581
1494.0   0.586
1495.0   0.589
1496.0   0.592
1497.0   0.594
1498.0   0.595
1499.0   0.592
1500.0   0.589
1501.0   0.593
1502.0   0.595
1503.0   0.598
1504.0   0.600
1505.0   0.602
1506.0   0.602
1507.0   0.602
1508.0   0.602
1509.0   0.601
1510.0   0.601
1511.0   0.601
1512.0   0.601
1513.0   0.602
1514.0   0.603
1515.0   0.604
1516.0   0.606
1517.0   0.606
1518.0   0.606
1519.0   0.608
1520.0   0.610
1521.0   0.612
1522.0   0.613
1523.0   0.615
1524.0   0.616
1525.0   0.615
1526.0   0.612
1527.0   0.613
1528.0   0.612
1529.0   0.616
1530.0   0.618
1531.0   0.621
1532.0   0.624
1533.0   0.624
1534.0   0.624
1535.0   0.624
1536.0   0.624
1537.0   0.624
1538.0   0.626
1539.0   0.626
1540.0   0.627
1541.0   0.625
1542.0   0.625
1543.0   0.625
1544.0   0.627
1545.0   0.626
1546.0   0.626
1547.0   0.625
1548.0   0.622
1549.0   0.625
1550.0   0.626
1551.0   0.623
1552.0   0.617
1553.0   0.613
1554.0   0.607
1555.0   0.607
1556.0   0.606
1557.0   0.604
1558.0   0.602
1559.0   0.599
1560.0   0.598
1561.0   0.597
1562.0   0.598
1563.0   0.597
1564.0   0.599
1565.0   0.599
1566.0   0.601
1567.0   0.601
1568.0   0.603
1569.0   0.605
1570.0   0.608
1571.0   0.612
1572.0   0.614
1573.0   0.620
1574.0   0.623
1575.0   0.622
1576.0   0.620
1577.0   0.621
1578.0   0.620
1579.0   0.624
1580.0   0.627
1581.0   0.628
1582.0   0.630
1583.0   0.630
1584.0   0.632
1585.0   0.630
1586.0   0.629
1587.0   0.626
1588.0   0.625
1589.0   0.627
1590.0   0.628
1591.0   0.629
1592.0   0.629
1593.0   0.633
1594.0   0.636
1595.0   0.633
1596.0   0.629
1597.0   0.628
1598.0   0.624
1599.0   0.622
1600.0   0.620
1601.0   0.619
1602.0   0.617
1603.0   0.614
1604.0   0.612
1605.0   0.609
1606.0   0.607
1607.0   0.603
1608.0   0.600
1609.0   0.597
1610.0   0.596
1611.0   0.593
1612.0   0.593
1613.0   0.590
1614.0   0.588
1615.0   0.586
1616.0   0.583
1617.0   0.583
1618.0   0.583
1619.0   0.582
1620.0   0.582
1621.0   0.582
1622.0   0.582
1623.0   0.584
1624.0   0.585
1625.0   0.587
1626.0   0.589
1627.0   0.594
1628.0   0.600
1629.0   0.608
1630.0   0.617
1631.0   0.617
1632.0   0.617
1633.0   0.616
1634.0   0.617
1635.0   0.618
1636.0   0.620
1637.0   0.620
1638.0   0.621
1639.0   0.620
1640.0   0.619
1641.0   0.618
1642.0   0.615
1643.0   0.615
1644.0   0.613
1645.0   0.612
1646.0   0.608
1647.0   0.607
1648.0   0.604
1649.0   0.600
1650.0   0.597
1651.0   0.593
1652.0   0.590
1653.0   0.587
1654.0   0.587
1655.0   0.586
1656.0   0.589
1657.0   0.585
1658.0   0.584
1659.0   0.579
1660.0   0.577
1661.0   0.578
1662.0   0.581
1663.0   0.584
1664.0   0.586
1665.0   0.589
1666.0   0.590
1667.0   0.590
1668.0   0.588
1669.0   0.588
1670.0   0.587
1671.0   0.586
1672.0   0.585
1673.0   0.586
1674.0   0.587
1675.0   0.587
1676.0   0.589
1677.0   0.587
1678.0   0.588
1679.0   0.587
1680.0   0.587
1681.0   0.586
1682.0   0.586
1683.0   0.584
1684.0   0.582
1685.0   0.582
1686.0   0.580
1687.0   0.582
1688.0   0.582
1689.0   0.588
1690.0   0.591
1691.0   0.591
1692.0   0.589
1693.0   0.589
1694.0   0.588
1695.0   0.590
1696.0   0.592
1697.0   0.593
1698.0   0.595
1699.0   0.595
1700.0   0.596
1701.0   0.596
1702.0   0.597
1703.0   0.597
1704.0   0.597
1705.0   0.596
1706.0   0.594
1707.0   0.589
1708.0   0.584
1709.0   0.580
1710.0   0.576
1711.0   0.575
1712.0   0.574
1713.0   0.573
1714.0   0.571
1715.0   0.570
1716.0   0.570
1717.0   0.569
1718.0   0.569
1719.0   0.568
1720.0   0.567
1721.0   0.566
1722.0   0.565
1723.0   0.566
1724.0   0.566
1725.0   0.568
1726.0   0.571
1727.0   0.573
1728.0   0.575
1729.0   0.576
1730.0   0.578
1731.0   0.578
1732.0   0.579
1733.0   0.579
1734.0   0.579
1735.0   0.580
1736.0   0.580
1737.0   0.581
1738.0   0.581
1739.0   0.582
1740.0   0.582
1741.0   0.582
1742.0   0.580
1743.0   0.580
1744.0   0.578
1745.0   0.574
1746.0   0.568
1747.0   0.564
1748.0   0.561
1749.0   0.559
1750.0   0.559
1751.0   0.554
1752.0   0.550
1753.0   0.545
1754.0   0.543
1755.0   0.540
1756.0   0.539
1757.0   0.536
1758.0   0.535
1759.0   0.534
1760.0   0.533
1761.0   0.531
1762.0   0.529
1763.0   0.528
1764.0   0.526
1765.0   0.530
1766.0   0.532
1767.0   0.532
1768.0   0.531
1769.0   0.530
1770.0   0.529
1771.0   0.529
1772.0   0.531
1773.0   0.530
1774.0   0.531
1775.0   0.533
1776.0   0.537
1777.0   0.537
1778.0   0.539
1779.0   0.538
1780.0   0.538
1781.0   0.539
1782.0   0.539
1783.0   0.541
1784.0   0.542
1785.0   0.543
1786.0   0.543
1787.0   0.543
1788.0   0.542
1789.0   0.542
1790.0   0.541
1791.0   0.540
1792.0   0.538
1793.0   0.538
1794.0   0.539
1795.0   0.541
1796.0   0.543
1797.0   0.543
1798.0   0.545
1799.0   0.544
1800.0   0.545
1801.0   0.544
1802.0   0.544
1803.0   0.544
1804.0   0.546
1805.0   0.545
1806.0   0.544
1807.0   0.543
1808.0   0.541
1809.0   0.540
1810.0   0.538
1811.0   0.540
1812.0   0.542
1813.0   0.542
1814.0   0.541
1815.0   0.539
1816.0   0.537
1817.0   0.536
1818.0   0.534
1819.0   0.532
1820.0   0.530
1821.0   0.527
1822.0   0.525
1823.0   0.525
1824.0   0.525
1825.0   0.522
1826.0   0.521
1827.0   0.518
1828.0   0.516
1829.0   0.517
1830.0   0.517
1831.0   0.518
1832.0   0.519
1833.0   0.520
1834.0   0.520
1835.0   0.522
1836.0   0.523
1837.0   0.525
1838.0   0.526
1839.0   0.527
1840.0   0.527
1841.0   0.529
1842.0   0.530
1843.0   0.531
1844.0   0.534
1845.0   0.534
1846.0   0.535
1847.0   0.534
1848.0   0.534
1849.0   0.534
1850.0   0.534
1851.0   0.533
1852.0   0.532
1853.0   0.531
1854.0   0.530
1855.0   0.530
1856.0   0.528
1857.0   0.529
1858.0   0.528
1859.0   0.527
1860.0   0.525
1861.0   0.523
1862.0   0.520
1863.0   0.519
1864.0   0.518
1865.0   0.517
1866.0   0.517
1867.0   0.517
1868.0   0.518
1869.0   0.517
1870.0   0.517
1871.0   0.518
1872.0   0.520
1873.0   0.521
1874.0   0.521
1875.0   0.523
1876.0   0.524
1877.0   0.523
1878.0   0.523
1879.0   0.525
1880.0   0.526
1881.0   0.527
1882.0   0.527
1883.0   0.526
1884.0   0.525
1885.0   0.523
1886.0   0.521
1887.0   0.520
1888.0   0.520
1889.0   0.520
1890.0   0.520
1891.0   0.520
1892.0   0.520
1893.0   0.519
1894.0   0.518
1895.0   0.518
1896.0   0.517
1897.0   0.516
1898.0   0.516
1899.0   0.514
1900.0   0.513
1901.0   0.512
1902.0   0.510
1903.0   0.510
1904.0   0.509
1905.0   0.508
1906.0   0.507
1907.0   0.506
1908.0   0.505
1909.0   0.507
1910.0   0.510
1911.0   0.510
1912.0   0.510
1913.0   0.511
1914.0   0.512
1915.0   0.512
1916.0   0.512
1917.0   0.512
1918.0   0.512
1919.0   0.513
1920.0   0.514
1921.0   0.514
1922.0   0.513
1923.0   0.514
1924.0   0.514
1925.0   0.516
1926.0   0.517
1927.0   0.517
1928.0   0.515
1929.0   0.514
1930.0   0.512
1931.0   0.510
1932.0   0.508
1933.0   0.506
1934.0   0.506
1935.0   0.504
1936.0   0.503
1937.0   0.501
1938.0   0.501
1939.0   0.497
1940.0   0.494
1941.0   0.491
1942.0   0.487
1943.0   0.484
1944.0   0.481
1945.0   0.479
1946.0   0.476
1947.0   0.474
1948.0   0.470
1949.0   0.469
1950.0   0.468
1951.0   0.466
1952.0   0.464
1953.0   0.462
1954.0   0.461
1955.0   0.459
1956.0   0.459
1957.0   0.459
1958.0   0.461
1959.0   0.460
1960.0   0.461
1961.0   0.459
1962.0   0.459
1963.0   0.461
1964.0   0.462
1965.0   0.464
1966.0   0.466
1967.0   0.469
1968.0   0.470
1969.0   0.473
1970.0   0.473
1971.0   0.476
1972.0   0.477
1973.0   0.480
1974.0   0.482
1975.0   0.485
1976.0   0.487
1977.0   0.490
1978.0   0.493
1979.0   0.496
1980.0   0.500
1981.0   0.500
1982.0   0.502
1983.0   0.503
1984.0   0.506
1985.0   0.504
1986.0   0.502
1987.0   0.501
1988.0   0.499
1989.0   0.501
1990.0   0.501
1991.0   0.499
1992.0   0.495
1993.0   0.493
1994.0   0.489
1995.0   0.488
1996.0   0.487
1997.0   0.485
1998.0   0.483
1999.0   0.480
2000.0   0.478
2001.0   0.474
2002.0   0.471
2003.0   0.468
2004.0   0.466
2005.0   0.464
2006.0   0.462
2007.0   0.461
2008.0   0.459
2009.0   0.458
2010.0   0.457
2011.0   0.457
2012.0   0.456
2013.0   0.457
2014.0   0.457
2015.0   0.457
2016.0   0.459
2017.0   0.459
2018.0   0.460
2019.0   0.461
2020.0   0.463
2021.0   0.465
2022.0   0.468
2023.0   0.472
2024.0   0.476
2025.0   0.479
2026.0   0.481
2027.0   0.484
2028.0   0.487
2029.0   0.491
2030.0   0.494
2031.0   0.497
2032.0   0.499
2033.0   0.500
2034.0   0.501
2035.0   0.503
2036.0   0.503
2037.0   0.504
2038.0   0.503
2039.0   0.503
2040.0   0.501
2041.0   0.501
2042.0   0.499
2043.0   0.498
2044.0   0.497
2045.0   0.496
2046.0   0.497
2047.0   0.495
2048.0   0.494
2049.0   0.492
2050.0   0.492
2051.0   0.490
2052.0   0.488
2053.0   0.488
2054.0   0.487
2055.0   0.487
2056.0   0.488
2057.0   0.487
2058.0   0.486
2059.0   0.485
2060.0   0.484
2061.0   0.483
2062.0   0.483
2063.0   0.482
2064.0   0.481
2065.0   0.480
2066.0   0.480
2067.0   0.479
2068.0   0.480
2069.0   0.480
2070.0   0.481
2071.0   0.481
2072.0   0.482
2073.0   0.483
2074.0   0.484
2075.0   0.483
2076.0   0.482
2077.0   0.482
2078.0   0.482
2079.0   0.483
2080.0   0.484
2081.0   0.484
2082.0   0.484
2083.0   0.484
2084.0   0.484
2085.0   0.484
2086.0   0.484
2087.0   0.485
2088.0   0.485
2089.0   0.484
2090.0   0.484
2091.0   0.485
2092.0   0.487
2093.0   0.487
2094.0   0.488
2095.0   0.487
2096.0   0.485
2097.0   0.485
2098.0   0.483
2099.0   0.485
2100.0   0.485
2101.0   0.486
2102.0   0.486
2103.0   0.485
2104.0   0.483
2105.0   0.482
2106.0   0.481
2107.0   0.480
2108.0   0.479
2109.0   0.478
2110.0   0.478
2111.0   0.478
2112.0   0.478
2113.0   0.477
2114.0   0.477
2115.0   0.476
2116.0   0.477
2117.0   0.476
2118.0   0.475
2119.0   0.474
2120.0   0.473
2121.0   0.474
2122.0   0.474
2123.0   0.476
2124.0   0.476
2125.0   0.479
2126.0   0.481
2127.0   0.481
2128.0   0.480
2129.0   0.479
2130.0   0.479
2131.0   0.478
2132.0   0.478
2133.0   0.478
2134.0   0.478
2135.0   0.479
2136.0   0.481
2137.0   0.482
2138.0   0.482
2139.0   0.483
2140.0   0.483
2141.0   0.484
2142.0   0.485
2143.0   0.485
2144.0   0.482
2145.0   0.481
2146.0   0.479
2147.0   0.477
2148.0   0.475
2149.0   0.474
2150.0   0.472
2151.0   0.472
2152.0   0.472
2153.0   0.470
2154.0   0.469
2155.0   0.469
2156.0   0.470
2157.0   0.469
2158.0   0.469
2159.0   0.466
2160.0   0.463
2161.0   0.464
2162.0   0.464
2163.0   0.465
2164.0   0.465
2165.0   0.466
2166.0   0.465
2167.0   0.464
2168.0   0.462
2169.0   0.461
2170.0   0.459
2171.0   0.459
2172.0   0.459
2173.0   0.459
2174.0   0.460
2175.0   0.459
2176.0   0.461
2177.0   0.460
2178.0   0.461
2179.0   0.457
2180.0   0.456
2181.0   0.453
2182.0   0.450
2183.0   0.450
2184.0   0.448
2185.0   0.450
2186.0   0.450
2187.0   0.448
2188.0   0.444
2189.0   0.443
2190.0   0.440
2191.0   0.442
2192.0   0.445
2193.0   0.444
2194.0   0.445
2195.0   0.442
2196.0   0.440
2197.0   0.435
2198.0   0.433
2199.0   0.429
2200.0   0.427
2201.0   0.427
2202.0   0.428
2203.0   0.430
2204.0   0.432
2205.0   0.434
2206.0   0.435
2207.0   0.436
2208.0   0.436
2209.0   0.438
2210.0   0.438
2211.0   0.439
2212.0   0.439
2213.0   0.440
2214.0   0.441
2215.0   0.440
2216.0   0.440
2217.0   0.440
2218.0   0.441
2219.0   0.439
2220.0   0.440
2221.0   0.438
2222.0   0.438
2223.0   0.437
2224.0   0.437
2225.0   0.436
2226.0   0.434
2227.0   0.434
2228.0   0.432
2229.0   0.432
2230.0   0.431
2231.0   0.429
2232.0   0.426
2233.0   0.424
2234.0   0.421
2235.0   0.419
2236.0   0.416
2237.0   0.413
2238.0   0.411
2239.0   0.408
2240.0   0.406
2241.0   0.403
2242.0   0.401
2243.0   0.399
2244.0   0.397
2245.0   0.394
2246.0   0.392
2247.0   0.389
2248.0   0.386
2249.0   0.384
2250.0   0.382
2251.0   0.380
2252.0   0.376
2253.0   0.375
2254.0   0.372
2255.0   0.371
2256.0   0.368
2257.0   0.367
2258.0   0.365
2259.0   0.365
2260.0   0.364
2261.0   0.363
2262.0   0.363
2263.0   0.361
2264.0   0.361
2265.0   0.359
2266.0   0.360
2267.0   0.360
2268.0   0.361
2269.0   0.362
2270.0   0.363
2271.0   0.365
2272.0   0.366
2273.0   0.368
2274.0   0.369
2275.0   0.372
2276.0   0.373
2277.0   0.376
2278.0   0.379
2279.0   0.382
2280.0   0.384
2281.0   0.386
2282.0   0.387
2283.0   0.390
2284.0   0.393
2285.0   0.397
2286.0   0.401
2287.0   0.403
2288.0   0.406
2289.0   0.408
2290.0   0.411
2291.0   0.412
2292.0   0.413
2293.0   0.413
2294.0   0.413
2295.0   0.415
2296.0   0.415
2297.0   0.415
2298.0   0.414
2299.0   0.413
2300.0   0.411
2301.0   0.410
2302.0   0.406
2303.0   0.406
2304.0   0.404
2305.0   0.402
2306.0   0.401
2307.0   0.398
2308.0   0.396
2309.0   0.394
2310.0   0.393
2311.0   0.389
2312.0   0.388
2313.0   0.384
2314.0   0.381
2315.0   0.378
2316.0   0.376
2317.0   0.373
2318.0   0.371
2319.0   0.369
2320.0   0.366
2321.0   0.364
2322.0   0.361
2323.0   0.360
2324.0   0.357
2325.0   0.357
2326.0   0.355
2327.0   0.355
2328.0   0.354
2329.0   0.353
2330.0   0.352
2331.0   0.351
2332.0   0.351
2333.0   0.350
2334.0   0.350
2335.0   0.349
2336.0   0.350
2337.0   0.350
2338.0   0.350
2339.0   0.351
2340.0   0.352
2341.0   0.354
2342.0   0.355
2343.0   0.357
2344.0   0.358
2345.0   0.360
2346.0   0.361
2347.0   0.363
2348.0   0.363
2349.0   0.364
2350.0   0.365
2351.0   0.367
2352.0   0.369
2353.0   0.370
2354.0   0.372
2355.0   0.372
2356.0   0.373
2357.0   0.372
2358.0   0.373
2359.0   0.372
2360.0   0.373
2361.0   0.373
2362.0   0.375
2363.0   0.374
2364.0   0.374
2365.0   0.373
2366.0   0.372
2367.0   0.373
2368.0   0.372
2369.0   0.371
2370.0   0.368
2371.0   0.367
2372.0   0.364
2373.0   0.364
2374.0   0.363
2375.0   0.362
2376.0   0.361
2377.0   0.358
2378.0   0.356
2379.0   0.355
2380.0   0.355
2381.0   0.354
2382.0   0.355
2383.0   0.354
2384.0   0.353
2385.0   0.352
2386.0   0.351
2387.0   0.350
2388.0   0.350
2389.0   0.350
2390.0   0.350
2391.0   0.351
2392.0   0.352
2393.0   0.352
2394.0   0.350
2395.0   0.349
2396.0   0.347
2397.0   0.347
2398.0   0.346
2399.0   0.346
2400.0   0.345
2401.0   0.344
2402.0   0.343
2403.0   0.342
2404.0   0.342
2405.0   0.340
2406.0   0.340
2407.0   0.337
2408.0   0.336
2409.0   0.334
2410.0   0.333
2411.0   0.331
2412.0   0.329
2413.0   0.327
2414.0   0.326
2415.0   0.325
2416.0   0.322
2417.0   0.320
2418.0   0.316
2419.0   0.314
2420.0   0.311
2421.0   0.308
2422.0   0.305
2423.0   0.302
2424.0   0.299
2425.0   0.297
2426.0   0.295
2427.0   0.292
2428.0   0.290
2429.0   0.288
2430.0   0.286
2431.0   0.284
2432.0   0.282
2433.0   0.280
2434.0   0.279
2435.0   0.277
2436.0   0.276
2437.0   0.274
2438.0   0.271
2439.0   0.270
2440.0   0.269
2441.0   0.269
2442.0   0.268
2443.0   0.267
2444.0   0.266
2445.0   0.266
2446.0   0.267
2447.0   0.267
2448.0   0.268
2449.0   0.267
2450.0   0.268
2451.0   0.268
2452.0   0.269
2453.0   0.270
2454.0   0.271
2455.0   0.273
2456.0   0.274
2457.0   0.275
2458.0   0.276
2459.0   0.276
2460.0   0.276
2461.0   0.276
2462.0   0.275
2463.0   0.275
2464.0   0.274
2465.0   0.275
2466.0   0.274
2467.0   0.275
2468.0   0.275
2469.0   0.275
2470.0   0.274
2471.0   0.273
2472.0   0.272
2473.0   0.270
2474.0   0.269
2475.0   0.266
2476.0   0.265
2477.0   0.262
2478.0   0.260
2479.0   0.258
2480.0   0.257
2481.0   0.255
2482.0   0.253
2483.0   0.250
2484.0   0.248
2485.0   0.247
2486.0   0.246
2487.0   0.246
2488.0   0.245
2489.0   0.244
2490.0   0.243
2491.0   0.244
2492.0   0.244
2493.0   0.245
2494.0   0.246
2495.0   0.247
2496.0   0.248
2497.0   0.250
2498.0   0.251
2499.0   0.251
2500.0   0.252
2501.0   0.252
2502.0   0.252
2503.0   0.251
2504.0   0.249
2505.0   0.246
2506.0   0.242
2507.0   0.236
2508.0   0.228
2509.0   0.219
2510.0   0.207
2511.0   0.196
2512.0   0.183
2513.0   0.169
2514.0   0.155
2515.0   0.141
2516.0   0.126
2517.0   0.112
2518.0   0.098
2519.0   0.087
2520.0   0.076
2521.0   0.067
2522.0   0.058
2523.0   0.051
2524.0   0.044
2525.0   0.038
2526.0   0.033
2527.0   0.028
2528.0   0.025
2529.0   0.022
2530.0   0.019
2531.0   0.017
2532.0   0.014
2533.0   0.012
2534.0   0.011
2535.0   0.009
2536.0   0.008
2537.0   0.007
2538.0   0.006
2539.0   0.006
2540.0   0.005
2541.0   0.005
2542.0   0.004
2543.0   0.004
2544.0   0.003
2545.0   0.003
2546.0   0.002
2547.0   0.002
2548.0   0.002
2549.0   0.002
2550.0   0.002
2551.0   0.001
2552.0   0.001
2553.0   0.001
2554.0   0.001
2555.0   0.001
2556.0   0.001
2557.0   0.001
2558.0   0.001
2559.0   0.001
2560.0   0.001
2561.0   0.001
2562.0   0.000
2600.0   0.000
