# Flamingos-2 HK grism and H filter (HK_G5802.dat * H_G0803.dat)
# Wavlength (nm)  Transmission
 900.0   0.000
1450.0   0.000
1451.0   0.001
1452.0   0.001
1453.0   0.001
1454.0   0.001
1455.0   0.001
1456.0   0.001
1457.0   0.002
1458.0   0.002
1459.0   0.002
1460.0   0.003
1461.0   0.003
1462.0   0.004
1463.0   0.004
1464.0   0.005
1465.0   0.006
1466.0   0.006
1467.0   0.007
1468.0   0.009
1469.0   0.010
1470.0   0.012
1471.0   0.014
1472.0   0.016
1473.0   0.019
1474.0   0.023
1475.0   0.027
1476.0   0.032
1477.0   0.039
1478.0   0.049
1479.0   0.061
1480.0   0.077
1481.0   0.098
1482.0   0.123
1483.0   0.156
1484.0   0.199
1485.0   0.245
1486.0   0.297
1487.0   0.357
1488.0   0.413
1489.0   0.464
1490.0   0.510
1491.0   0.541
1492.0   0.564
1493.0   0.582
1494.0   0.594
1495.0   0.598
1496.0   0.602
1497.0   0.605
1498.0   0.601
1499.0   0.594
1500.0   0.597
1501.0   0.599
1502.0   0.604
1503.0   0.608
1504.0   0.607
1505.0   0.608
1506.0   0.604
1507.0   0.604
1508.0   0.601
1509.0   0.599
1510.0   0.596
1511.0   0.596
1512.0   0.596
1513.0   0.598
1514.0   0.595
1515.0   0.599
1516.0   0.597
1517.0   0.600
1518.0   0.602
1519.0   0.603
1520.0   0.608
1521.0   0.607
1522.0   0.610
1523.0   0.614
1524.0   0.610
1525.0   0.608
1526.0   0.602
1527.0   0.603
1528.0   0.602
1529.0   0.606
1530.0   0.606
1531.0   0.611
1532.0   0.613
1533.0   0.610
1534.0   0.609
1535.0   0.609
1536.0   0.612
1537.0   0.614
1538.0   0.619
1539.0   0.622
1540.0   0.621
1541.0   0.623
1542.0   0.626
1543.0   0.630
1544.0   0.634
1545.0   0.636
1546.0   0.636
1547.0   0.636
1548.0   0.645
1549.0   0.654
1550.0   0.652
1551.0   0.651
1552.0   0.645
1553.0   0.641
1554.0   0.643
1555.0   0.648
1556.0   0.644
1557.0   0.645
1558.0   0.642
1559.0   0.640
1560.0   0.639
1561.0   0.638
1562.0   0.637
1563.0   0.637
1564.0   0.634
1565.0   0.630
1566.0   0.627
1567.0   0.621
1568.0   0.621
1569.0   0.618
1570.0   0.613
1571.0   0.612
1572.0   0.615
1573.0   0.614
1574.0   0.606
1575.0   0.598
1576.0   0.595
1577.0   0.587
1578.0   0.590
1579.0   0.591
1580.0   0.591
1581.0   0.592
1582.0   0.592
1583.0   0.597
1584.0   0.595
1585.0   0.595
1586.0   0.593
1587.0   0.596
1588.0   0.599
1589.0   0.604
1590.0   0.603
1591.0   0.608
1592.0   0.621
1593.0   0.628
1594.0   0.629
1595.0   0.629
1596.0   0.629
1597.0   0.631
1598.0   0.631
1599.0   0.631
1600.0   0.635
1601.0   0.636
1602.0   0.634
1603.0   0.636
1604.0   0.639
1605.0   0.636
1606.0   0.638
1607.0   0.639
1608.0   0.636
1609.0   0.638
1610.0   0.641
1611.0   0.644
1612.0   0.643
1613.0   0.643
1614.0   0.644
1615.0   0.642
1616.0   0.643
1617.0   0.645
1618.0   0.644
1619.0   0.643
1620.0   0.640
1621.0   0.641
1622.0   0.640
1623.0   0.636
1624.0   0.637
1625.0   0.631
1626.0   0.630
1627.0   0.633
1628.0   0.640
1629.0   0.646
1630.0   0.640
1631.0   0.638
1632.0   0.631
1633.0   0.624
1634.0   0.623
1635.0   0.621
1636.0   0.619
1637.0   0.619
1638.0   0.620
1639.0   0.617
1640.0   0.615
1641.0   0.613
1642.0   0.618
1643.0   0.618
1644.0   0.621
1645.0   0.620
1646.0   0.624
1647.0   0.625
1648.0   0.627
1649.0   0.627
1650.0   0.629
1651.0   0.625
1652.0   0.626
1653.0   0.628
1654.0   0.632
1655.0   0.635
1656.0   0.637
1657.0   0.637
1658.0   0.629
1659.0   0.624
1660.0   0.626
1661.0   0.624
1662.0   0.628
1663.0   0.631
1664.0   0.635
1665.0   0.633
1666.0   0.630
1667.0   0.628
1668.0   0.625
1669.0   0.623
1670.0   0.618
1671.0   0.618
1672.0   0.614
1673.0   0.614
1674.0   0.618
1675.0   0.616
1676.0   0.614
1677.0   0.617
1678.0   0.615
1679.0   0.616
1680.0   0.617
1681.0   0.614
1682.0   0.615
1683.0   0.612
1684.0   0.610
1685.0   0.609
1686.0   0.606
1687.0   0.604
1688.0   0.615
1689.0   0.619
1690.0   0.616
1691.0   0.614
1692.0   0.612
1693.0   0.608
1694.0   0.606
1695.0   0.609
1696.0   0.610
1697.0   0.609
1698.0   0.610
1699.0   0.609
1700.0   0.610
1701.0   0.608
1702.0   0.609
1703.0   0.609
1704.0   0.612
1705.0   0.611
1706.0   0.605
1707.0   0.600
1708.0   0.596
1709.0   0.593
1710.0   0.593
1711.0   0.594
1712.0   0.593
1713.0   0.591
1714.0   0.593
1715.0   0.593
1716.0   0.596
1717.0   0.596
1718.0   0.596
1719.0   0.599
1720.0   0.596
1721.0   0.596
1722.0   0.596
1723.0   0.592
1724.0   0.598
1725.0   0.601
1726.0   0.601
1727.0   0.602
1728.0   0.605
1729.0   0.604
1730.0   0.604
1731.0   0.604
1732.0   0.601
1733.0   0.600
1734.0   0.599
1735.0   0.597
1736.0   0.596
1737.0   0.599
1738.0   0.597
1739.0   0.598
1740.0   0.597
1741.0   0.595
1742.0   0.599
1743.0   0.598
1744.0   0.593
1745.0   0.586
1746.0   0.583
1747.0   0.582
1748.0   0.582
1749.0   0.585
1750.0   0.582
1751.0   0.580
1752.0   0.575
1753.0   0.575
1754.0   0.571
1755.0   0.572
1756.0   0.569
1757.0   0.567
1758.0   0.569
1759.0   0.566
1760.0   0.562
1761.0   0.559
1762.0   0.548
1763.0   0.544
1764.0   0.541
1765.0   0.534
1766.0   0.527
1767.0   0.513
1768.0   0.495
1769.0   0.478
1770.0   0.457
1771.0   0.435
1772.0   0.410
1773.0   0.384
1774.0   0.358
1775.0   0.331
1776.0   0.305
1777.0   0.275
1778.0   0.247
1779.0   0.220
1780.0   0.196
1781.0   0.172
1782.0   0.152
1783.0   0.134
1784.0   0.116
1785.0   0.101
1786.0   0.088
1787.0   0.076
1788.0   0.066
1789.0   0.058
1790.0   0.049
1791.0   0.043
1792.0   0.038
1793.0   0.033
1794.0   0.029
1795.0   0.025
1796.0   0.022
1797.0   0.019
1798.0   0.017
1799.0   0.015
1800.0   0.013
1801.0   0.012
1802.0   0.010
1803.0   0.009
1804.0   0.008
1805.0   0.007
1806.0   0.006
1807.0   0.006
1808.0   0.005
1809.0   0.005
1810.0   0.004
1811.0   0.004
1812.0   0.003
1813.0   0.003
1814.0   0.003
1815.0   0.002
1816.0   0.002
1817.0   0.002
1818.0   0.002
1819.0   0.002
1820.0   0.001
1821.0   0.001
1822.0   0.001
1823.0   0.001
1824.0   0.001
1825.0   0.001
1826.0   0.001
1827.0   0.001
1828.0   0.001
1829.0   0.001
1830.0   0.001
1831.0   0.000
2600.0   0.000
